Frequency (MHz)	Ang(S(2,1)) (Deg) : Circular Pol midband	Ang(S(3,1)) (Deg) : Circular Pol midband
50	168.074	-103.067
50.1	167.817	-103.326
50.2	167.564	-103.581
50.3	167.316	-103.831
50.4	167.07	-104.078
50.5	166.828	-104.322
50.6	166.587	-104.565
50.7	166.349	-104.805
50.8	166.114	-105.041
50.9	165.882	-105.274
51	165.653	-105.503
51.1	165.428	-105.731
51.2	165.206	-105.955
51.3	164.986	-106.177
51.4	164.769	-106.395
51.5	164.554	-106.611
51.6	164.342	-106.823
51.7	164.133	-107.033
51.8	163.926	-107.24
51.9	163.721	-107.444
52	163.519	-107.646
52.1	163.323	-107.845
52.2	163.129	-108.042
52.3	162.938	-108.236
52.4	162.748	-108.429
52.5	162.56	-108.619
52.6	162.392	-108.788
52.7	162.226	-108.954
52.8	162.063	-109.117
52.9	161.903	-109.278
53	161.746	-109.435
53.1	161.591	-109.594
53.2	161.439	-109.749
53.3	161.289	-109.903
53.4	161.141	-110.054
53.5	160.995	-110.203
53.6	160.85	-110.351
53.7	160.706	-110.498
53.8	160.564	-110.642
53.9	160.424	-110.784
54	160.286	-110.925
54.1	160.152	-111.062
54.2	160.019	-111.196
54.3	159.888	-111.329
54.4	159.758	-111.461
54.5	159.629	-111.591
54.6	159.502	-111.72
54.7	159.375	-111.848
54.8	159.25	-111.975
54.9	159.126	-112.1
55	159.003	-112.224
55.1	158.929	-112.301
55.2	158.856	-112.377
55.3	158.781	-112.453
55.4	158.707	-112.53
55.5	158.633	-112.606
55.6	158.559	-112.682
55.7	158.485	-112.759
55.8	158.411	-112.835
55.9	158.337	-112.911
56	158.263	-112.987
56.1	158.191	-113.064
56.2	158.118	-113.141
56.3	158.046	-113.217
56.4	157.974	-113.294
56.5	157.901	-113.37
56.6	157.828	-113.445
56.7	157.754	-113.521
56.8	157.681	-113.596
56.9	157.607	-113.671
57	157.533	-113.746
57.1	157.459	-113.824
57.2	157.385	-113.901
57.3	157.311	-113.978
57.4	157.237	-114.055
57.5	157.163	-114.133
57.6	156.899	-114.4
57.7	156.641	-114.662
57.8	156.388	-114.919
57.9	156.139	-115.171
58	155.896	-115.419
58.1	155.657	-115.662
58.2	155.422	-115.9
58.3	155.191	-116.135
58.4	154.965	-116.365
58.5	154.742	-116.592
58.6	154.523	-116.812
58.7	154.309	-117.029
58.8	154.098	-117.242
58.9	153.89	-117.452
59	153.685	-117.658
59.1	153.484	-117.864
59.2	153.286	-118.067
59.3	153.091	-118.267
59.4	152.898	-118.464
59.5	152.708	-118.658
59.6	152.522	-118.849
59.7	152.338	-119.038
59.8	152.156	-119.224
59.9	151.977	-119.408
60	151.8	-119.59
60.1	151.549	-119.846
60.2	151.304	-120.095
60.3	151.064	-120.339
60.4	150.83	-120.578
60.5	150.601	-120.812
60.6	150.375	-121.041
60.7	150.153	-121.266
60.8	149.936	-121.487
60.9	149.723	-121.703
61	149.514	-121.915
61.1	149.312	-122.122
61.2	149.114	-122.325
61.3	148.919	-122.525
61.4	148.728	-122.721
61.5	148.54	-122.914
61.6	148.355	-123.103
61.7	148.173	-123.288
61.8	147.994	-123.471
61.9	147.818	-123.651
62	147.644	-123.828
62.1	147.473	-124.004
62.2	147.304	-124.178
62.3	147.137	-124.35
62.4	146.973	-124.519
62.5	146.811	-124.686
62.6	146.591	-124.911
62.7	146.375	-125.132
62.8	146.163	-125.348
62.9	145.956	-125.561
63	145.752	-125.77
63.1	145.552	-125.975
63.2	145.355	-126.177
63.3	145.161	-126.375
63.4	144.971	-126.57
63.5	144.784	-126.762
63.6	144.6	-126.951
63.7	144.42	-127.137
63.8	144.242	-127.32
63.9	144.066	-127.501
64	143.893	-127.678
64.1	143.724	-127.854
64.2	143.557	-128.027
64.3	143.392	-128.197
64.4	143.229	-128.365
64.5	143.068	-128.531
64.6	142.909	-128.696
64.7	142.752	-128.859
64.8	142.596	-129.02
64.9	142.442	-129.179
65	142.29	-129.336
65.1	142.07	-129.561
65.2	141.856	-129.782
65.3	141.645	-129.998
65.4	141.439	-130.211
65.5	141.236	-130.419
65.6	141.039	-130.621
65.7	140.845	-130.82
65.8	140.655	-131.015
65.9	140.469	-131.207
66	140.285	-131.395
66.1	140.105	-131.583
66.2	139.928	-131.767
66.3	139.753	-131.948
66.4	139.582	-132.127
66.5	139.413	-132.302
66.6	139.246	-132.474
66.7	139.081	-132.643
66.8	138.919	-132.81
66.9	138.759	-132.974
67	138.601	-133.136
67.1	138.45	-133.296
67.2	138.3	-133.454
67.3	138.153	-133.61
67.4	138.007	-133.764
67.5	137.864	-133.915
67.6	137.574	-134.211
67.7	137.291	-134.499
67.8	137.014	-134.781
67.9	136.744	-135.057
68	136.479	-135.327
68.1	136.221	-135.592
68.2	135.967	-135.851
68.3	135.719	-136.106
68.4	135.476	-136.355
68.5	135.238	-136.6
68.6	135.004	-136.838
68.7	134.775	-137.072
68.8	134.55	-137.302
68.9	134.329	-137.528
69	134.113	-137.749
69.1	133.903	-137.968
69.2	133.697	-138.184
69.3	133.494	-138.396
69.4	133.295	-138.604
69.5	133.099	-138.81
69.6	132.902	-139.011
69.7	132.708	-139.21
69.8	132.518	-139.405
69.9	132.329	-139.598
70	132.144	-139.788
70.1	131.917	-140.023
70.2	131.694	-140.253
70.3	131.476	-140.479
70.4	131.261	-140.701
70.5	131.05	-140.92
70.6	130.845	-141.133
70.7	130.644	-141.344
70.8	130.446	-141.55
70.9	130.252	-141.754
71	130.06	-141.954
71.1	129.804	-142.216
71.2	129.554	-142.473
71.3	129.308	-142.725
71.4	129.067	-142.973
71.5	128.83	-143.215
71.6	128.594	-143.456
71.7	128.363	-143.693
71.8	128.136	-143.926
71.9	127.912	-144.154
72	127.692	-144.379
72.1	127.433	-144.647
72.2	127.18	-144.909
72.3	126.932	-145.166
72.4	126.688	-145.418
72.5	126.45	-145.665
72.6	126.211	-145.911
72.7	125.976	-146.153
72.8	125.746	-146.39
72.9	125.52	-146.623
73	125.297	-146.852
73.1	124.999	-147.158
73.2	124.707	-147.457
73.3	124.421	-147.75
73.4	124.142	-148.037
73.5	123.867	-148.318
73.6	123.598	-148.595
73.7	123.334	-148.867
73.8	123.075	-149.134
73.9	122.821	-149.396
74	122.572	-149.653
74.1	122.318	-149.915
74.2	122.069	-150.172
74.3	121.825	-150.423
74.4	121.587	-150.67
74.5	121.353	-150.911
74.6	121.125	-151.147
74.7	120.901	-151.379
74.8	120.682	-151.606
74.9	120.466	-151.829
75	120.255	-152.048
75.1	119.998	-152.311
75.2	119.747	-152.569
75.3	119.501	-152.821
75.4	119.26	-153.068
75.5	119.024	-153.311
75.6	118.791	-153.552
75.7	118.563	-153.788
75.8	118.339	-154.021
75.9	118.118	-154.249
76	117.902	-154.473
76.1	117.597	-154.787
76.2	117.299	-155.093
76.3	117.008	-155.394
76.4	116.722	-155.688
76.5	116.442	-155.976
76.6	116.169	-156.257
76.7	115.902	-156.532
76.8	115.64	-156.802
76.9	115.383	-157.067
77	115.13	-157.327
77.1	114.832	-157.634
77.2	114.54	-157.935
77.3	114.255	-158.229
77.4	113.975	-158.516
77.5	113.702	-158.798
77.6	113.436	-159.071
77.7	113.174	-159.338
77.8	112.919	-159.6
77.9	112.668	-159.857
78	112.421	-160.109
78.1	112.096	-160.444
78.2	111.778	-160.771
78.3	111.468	-161.091
78.4	111.164	-161.404
78.5	110.867	-161.71
78.6	110.578	-162.008
78.7	110.295	-162.3
78.8	110.018	-162.587
78.9	109.746	-162.867
79	109.48	-163.142
79.1	109.169	-163.461
79.2	108.866	-163.773
79.3	108.57	-164.078
79.4	108.28	-164.376
79.5	107.997	-164.668
79.6	107.721	-164.953
79.7	107.451	-165.232
79.8	107.186	-165.505
79.9	106.927	-165.772
80	106.673	-166.034
80.1	106.332	-166.383
80.2	105.999	-166.723
80.3	105.674	-167.056
80.4	105.356	-167.381
80.5	105.046	-167.699
80.6	104.744	-168.009
80.7	104.448	-168.312
80.8	104.159	-168.609
80.9	103.876	-168.9
81	103.598	-169.186
81.1	103.255	-169.539
81.2	102.92	-169.883
81.3	102.592	-170.22
81.4	102.273	-170.549
81.5	101.96	-170.87
81.6	101.656	-171.183
81.7	101.359	-171.489
81.8	101.068	-171.789
81.9	100.783	-172.082
82	100.504	-172.37
82.1	100.129	-172.753
82.2	99.7646	-173.127
82.3	99.4088	-173.492
82.4	99.0614	-173.848
82.5	98.7223	-174.196
82.6	98.3926	-174.533
82.7	98.0705	-174.862
82.8	97.7555	-175.184
82.9	97.4473	-175.498
83	97.1457	-175.807
83.1	96.7637	-176.197
83.2	96.3911	-176.578
83.3	96.0276	-176.95
83.4	95.6727	-177.313
83.5	95.3261	-177.667
83.6	94.9902	-178.012
83.7	94.6618	-178.349
83.8	94.3407	-178.679
83.9	94.0266	-179.002
84	93.7191	-179.318
84.1	93.3077	-179.737
84.2	92.907	179.854
84.3	92.5165	179.456
84.4	92.1357	179.067
84.5	91.7641	178.688
84.6	91.4026	178.319
84.7	91.0495	177.958
84.8	90.7045	177.606
84.9	90.3672	177.261
85	90.0374	176.924
85.1	89.6018	176.48
85.2	89.1775	176.048
85.3	88.7641	175.626
85.4	88.3609	175.215
85.5	87.9676	174.814
85.6	87.5838	174.422
85.7	87.2091	174.04
85.8	86.843	173.666
85.9	86.4851	173.3
86	86.1352	172.943
86.1	85.6746	172.475
86.2	85.2261	172.019
86.3	84.7893	171.576
86.4	84.3635	171.143
86.5	83.9483	170.721
86.6	83.5437	170.309
86.7	83.1487	169.906
86.8	82.763	169.513
86.9	82.3861	169.129
87	82.0176	168.754
87.1	81.5389	168.268
87.2	81.0731	167.794
87.3	80.6196	167.333
87.4	80.1779	166.884
87.5	79.7474	166.447
87.6	79.3309	166.024
87.7	78.9247	165.611
87.8	78.5282	165.209
87.9	78.1411	164.815
88	77.7629	164.431
88.1	77.2333	163.896
88.2	76.7184	163.375
88.3	76.2175	162.868
88.4	75.7299	162.375
88.5	75.255	161.894
88.6	74.7955	161.427
88.7	74.3475	160.972
88.8	73.9107	160.528
88.9	73.4844	160.095
89	73.0682	159.672
89.1	72.5089	159.109
89.2	71.9653	158.562
89.3	71.4368	158.031
89.4	70.9225	157.513
89.5	70.4219	157.01
89.6	69.9395	156.52
89.7	69.4694	156.042
89.8	69.0112	155.577
89.9	68.5643	155.122
90	68.1282	154.679
90.1	67.525	154.075
90.2	66.9506	153.493
90.3	66.3859	152.922
90.4	65.8338	152.375
90.5	65.294	151.836
90.6	64.779	151.315
90.7	64.2721	150.802
90.8	63.7802	150.301
90.9	63.2896	149.813
91	62.8251	149.336
91.1	62.1694	148.676
91.2	61.5428	148.05
91.3	60.9319	147.428
91.4	60.3305	146.837
91.5	59.7483	146.249
91.6	59.1831	145.682
91.7	58.6342	145.135
91.8	58.1013	144.594
91.9	57.5748	144.067
92	57.0662	143.55
92.1	56.3522	142.843
92.2	55.6669	142.151
92.3	54.9952	141.481
92.4	54.3451	140.829
92.5	53.7158	140.205
92.6	53.096	139.585
92.7	52.4977	138.981
92.8	51.9206	138.402
92.9	51.3415	137.825
93	50.796	137.278
93.1	50.0218	136.507
93.2	49.269	135.757
93.3	48.5484	135.03
93.4	47.8388	134.326
93.5	47.1557	133.642
93.6	46.4856	132.977
93.7	45.8439	132.331
93.8	45.2008	131.697
93.9	44.5894	131.09
94	43.993	130.492
94.1	43.1321	129.637
94.2	42.3042	128.814
94.3	41.4975	128.018
94.4	40.7246	127.242
94.5	39.967	126.487
94.6	39.2312	125.753
94.7	38.5166	125.044
94.8	37.8182	124.356
94.9	37.1487	123.688
95	36.487	123.033
95.1	35.539	122.094
95.2	34.6227	121.178
95.3	33.7278	120.3
95.4	32.8715	119.441
95.5	32.0328	118.61
95.6	31.2105	117.796
95.7	30.415	117.012
95.8	29.6467	116.247
95.9	28.8962	115.508
96	28.1666	114.786
96.1	27.1255	113.757
96.2	26.1112	112.752
96.3	25.1336	111.786
96.4	24.1808	110.851
96.5	23.2614	109.931
96.6	22.3622	109.049
96.7	21.4873	108.192
96.8	20.6467	107.354
96.9	19.8235	106.543
97	19.0178	105.754
97.1	17.8585	104.607
97.2	16.7326	103.498
97.3	15.644	102.427
97.4	14.5828	101.384
97.5	13.5577	100.368
97.6	12.5604	99.3861
97.7	11.5883	98.4312
97.8	10.6485	97.5058
97.9	9.73868	96.6068
98	8.84392	95.7324
98.1	7.56715	94.4748
98.2	6.33847	93.2648
98.3	5.13679	92.0844
98.4	3.97463	90.9387
98.5	2.85177	89.837
98.6	1.75674	88.7566
98.7	0.683755	87.7094
98.8	-0.349663	86.6895
98.9	-1.36042	85.7042
99	-2.33922	84.7447
99.1	-3.72887	83.3739
99.2	-5.08194	82.0362
99.3	-6.39195	80.7502
99.4	-7.663	79.5022
99.5	-8.90491	78.2868
99.6	-10.1066	77.0925
99.7	-11.2724	75.9547
99.8	-12.4167	74.8409
99.9	-13.5127	73.7557
100	-14.5956	72.7005
100.1	-15.9547	71.3579
100.2	-17.2833	70.0564
100.3	-18.5711	68.785
100.4	-19.8305	67.5529
100.5	-21.0451	66.3508
100.6	-22.4489	64.9678
100.7	-23.8141	63.6236
100.8	-25.1429	62.3154
100.9	-26.437	61.0486
101	-27.6962	59.8047
101.1	-29.1443	58.3797
101.2	-30.5508	56.9881
101.3	-31.9166	55.6435
101.4	-33.2535	54.322
101.5	-34.5469	53.0474
101.6	-36.0107	51.5997
101.7	-37.4381	50.1875
101.8	-38.8338	48.8065
101.9	-40.1921	47.466
102	-41.5101	46.162
102.1	-42.9835	44.7048
102.2	-44.4204	43.2827
102.3	-45.8189	41.8898
102.4	-47.1995	40.5293
102.5	-48.5288	39.2074
102.6	-50.0037	37.7408
102.7	-51.4515	36.3029
102.8	-52.8713	34.8958
102.9	-54.2532	33.5206
103	-55.6057	32.1768
103.1	-57.0831	30.7107
103.2	-58.5285	29.2712
103.3	-59.9496	27.8624
103.4	-61.336	26.478
103.5	-62.6942	25.1264
103.6	-64.145	23.6741
103.7	-65.5766	22.2433
103.8	-66.9803	20.85
103.9	-68.36	19.4746
104	-69.7075	18.1327
104.1	-71.1344	16.6987
104.2	-72.5448	15.2915
104.3	-73.9282	13.908
104.4	-75.2879	12.549
104.5	-76.6345	11.2088
104.6	-78.0276	9.80697
104.7	-79.4105	8.42516
104.8	-80.7806	7.05684
104.9	-82.1224	5.70729
105	-83.4395	4.38974
105.1	-84.809	3.02015
105.2	-86.1671	1.66628
105.3	-87.5051	0.315891
105.4	-88.8277	-1.00531
105.5	-90.1278	-2.31088
105.6	-91.4582	-3.65033
105.7	-92.7815	-4.97356
105.8	-94.0894	-6.28374
105.9	-95.3788	-7.58069
106	-96.66	-8.85995
106.1	-97.9535	-10.1652
106.2	-99.2428	-11.452
106.3	-100.515	-12.7258
106.4	-101.775	-13.9989
106.5	-103.023	-15.2432
106.6	-104.287	-16.5196
106.7	-105.547	-17.778
106.8	-106.795	-19.0318
106.9	-108.024	-20.2642
107	-109.244	-21.4931
107.1	-110.491	-22.7396
107.2	-111.726	-23.9753
107.3	-112.946	-25.2051
107.4	-114.165	-26.4257
107.5	-115.375	-27.6293
107.6	-116.574	-28.8347
107.7	-117.772	-30.0357
107.8	-118.956	-31.2231
107.9	-120.13	-32.4014
108	-121.309	-33.5802
108.1	-122.482	-34.762
108.2	-123.652	-35.9285
108.3	-124.824	-37.1097
108.4	-125.989	-38.2666
108.5	-127.137	-39.4225
108.6	-128.293	-40.5749
108.7	-129.43	-41.7159
108.8	-130.57	-42.859
108.9	-131.701	-43.9929
109	-132.832	-45.1193
109.1	-133.96	-46.2473
109.2	-135.08	-47.3692
109.3	-136.184	-48.477
109.4	-137.302	-49.593
109.5	-138.402	-50.6967
109.6	-139.51	-51.7991
109.7	-140.611	-52.8948
109.8	-141.698	-53.9884
109.9	-142.796	-55.087
110	-143.873	-56.1673
110.1	-144.954	-57.2422
110.2	-146.029	-58.3136
110.3	-147.1	-59.3812
110.4	-148.17	-60.4503
110.5	-149.231	-61.5174
110.6	-150.299	-62.5763
110.7	-151.357	-63.6353
110.8	-152.416	-64.6919
110.9	-153.47	-65.7473
111	-154.529	-66.7984
111.1	-155.562	-67.8348
111.2	-156.594	-68.8667
111.3	-157.637	-69.9002
111.4	-158.667	-70.935
111.5	-159.703	-71.9619
111.6	-160.722	-72.9819
111.7	-161.749	-74.0035
111.8	-162.771	-75.0279
111.9	-163.782	-76.0359
112	-164.81	-77.0502
112.1	-165.812	-78.0571
112.2	-166.813	-79.0604
112.3	-167.827	-80.0634
112.4	-168.818	-81.0525
112.5	-169.82	-82.0565
112.6	-170.807	-83.0345
112.7	-171.8	-84.0255
112.8	-172.781	-85.0104
112.9	-173.773	-85.9986
113	-174.752	-86.9683
113.1	-175.72	-87.9424
113.2	-176.707	-88.9177
113.3	-177.673	-89.8875
113.4	-178.649	-90.8587
113.5	-179.62	-91.8172
113.6	179.418	-92.7821
113.7	178.453	-93.7414
113.8	177.497	-94.7008
113.9	176.54	-95.6588
114	175.579	-96.6101
114.1	174.631	-97.5554
114.2	173.685	-98.4955
114.3	172.738	-99.4425
114.4	171.791	-100.384
114.5	170.853	-101.318
114.6	169.919	-102.252
114.7	168.979	-103.189
114.8	168.046	-104.121
114.9	167.114	-105.047
115	166.186	-105.976
115.1	165.268	-106.889
115.2	164.344	-107.807
115.3	163.434	-108.716
115.4	162.515	-109.63
115.5	161.598	-110.548
115.6	160.684	-111.455
115.7	159.776	-112.361
115.8	158.863	-113.269
115.9	157.953	-114.18
116	157.047	-115.082
116.1	156.142	-115.989
116.2	155.244	-116.881
116.3	154.337	-117.782
116.4	153.435	-118.683
116.5	152.532	-119.58
116.6	151.65	-120.465
116.7	150.767	-121.346
116.8	149.886	-122.229
116.9	148.999	-123.104
117	148.117	-123.986
117.1	147.243	-124.852
117.2	146.367	-125.731
117.3	145.496	-126.598
117.4	144.616	-127.47
117.5	143.746	-128.339
117.6	142.884	-129.2
117.7	142.007	-130.074
117.8	141.138	-130.938
117.9	140.271	-131.809
118	139.407	-132.669
118.1	138.543	-133.527
118.2	137.677	-134.391
118.3	136.815	-135.246
118.4	135.95	-136.108
118.5	135.098	-136.962
118.6	134.247	-137.805
118.7	133.398	-138.653
118.8	132.549	-139.506
118.9	131.698	-140.346
119	130.852	-141.19
119.1	130.003	-142.041
119.2	129.161	-142.876
119.3	128.317	-143.713
119.4	127.481	-144.549
119.5	126.637	-145.386
119.6	125.803	-146.218
119.7	124.975	-147.043
119.8	124.144	-147.873
119.9	123.31	-148.703
120	122.486	-149.519
120.1	121.653	-150.35
120.2	120.833	-151.167
120.3	120.006	-151.994
120.4	119.179	-152.812
120.5	118.355	-153.635
120.6	117.529	-154.454
120.7	116.708	-155.267
120.8	115.886	-156.085
120.9	115.069	-156.901
121	114.247	-157.718
121.1	113.433	-158.531
121.2	112.613	-159.344
121.3	111.794	-160.163
121.4	110.984	-160.967
121.5	110.168	-161.777
121.6	109.355	-162.586
121.7	108.547	-163.391
121.8	107.736	-164.203
121.9	106.926	-165.003
122	106.109	-165.807
122.1	105.302	-166.616
122.2	104.492	-167.419
122.3	103.694	-168.208
122.4	102.88	-169.013
122.5	102.089	-169.812
122.6	101.285	-170.613
122.7	100.483	-171.407
122.8	99.687	-172.2
122.9	98.8829	-172.988
123	98.0932	-173.775
123.1	97.2837	-174.575
123.2	96.4922	-175.364
123.3	95.6901	-176.166
123.4	94.8942	-176.953
123.5	94.0854	-177.755
123.6	93.3064	-178.529
123.7	92.5137	-179.318
123.8	91.7326	179.903
123.9	90.935	179.121
124	90.1455	178.335
124.1	89.3602	177.557
124.2	88.5778	176.778
124.3	87.79	175.998
124.4	86.9995	175.222
124.5	86.2181	174.44
124.6	85.4452	173.674
124.7	84.6647	172.903
124.8	83.8787	172.13
124.9	83.1153	171.361
125	82.3288	170.581
125.1	81.5495	169.814
125.2	80.7599	169.036
125.3	79.9774	168.255
125.4	79.1911	167.476
125.5	78.4065	166.697
125.6	77.633	165.932
125.7	76.8488	165.161
125.8	76.0788	164.395
125.9	75.3066	163.624
126	74.5314	162.857
126.1	73.7528	162.091
126.2	72.9805	161.332
126.3	72.2087	160.566
126.4	71.4344	159.793
126.5	70.6674	159.03
126.6	69.8959	158.276
126.7	69.1234	157.508
126.8	68.3583	156.746
126.9	67.586	155.984
127	66.8252	155.231
127.1	66.0525	154.465
127.2	65.2814	153.702
127.3	64.5094	152.947
127.4	63.747	152.188
127.5	62.9751	151.419
127.6	62.2085	150.669
127.7	61.4537	149.912
127.8	60.6939	149.165
127.9	59.932	148.407
128	59.1745	147.664
128.1	58.4122	146.91
128.2	57.6406	146.146
128.3	56.8783	145.396
128.4	56.12	144.643
128.5	55.3466	143.883
128.6	54.5908	143.135
128.7	53.8241	142.378
128.8	53.066	141.626
128.9	52.3028	140.873
129	51.535	140.117
129.1	50.7868	139.372
129.2	50.0321	138.629
129.3	49.2798	137.89
129.4	48.5265	137.142
129.5	47.7678	136.396
129.6	47.015	135.657
129.7	46.2567	134.898
129.8	45.5024	134.157
129.9	44.743	133.407
130	43.9856	132.662
130.1	43.23	131.91
130.2	42.4893	131.176
130.3	41.735	130.433
130.4	40.9901	129.695
130.5	40.2302	128.958
130.6	39.4883	128.214
130.7	38.732	127.47
130.8	37.9776	126.728
130.9	37.2267	125.991
131	36.4718	125.245
131.1	35.7232	124.503
131.2	34.9843	123.776
131.3	34.2352	123.036
131.4	33.4877	122.302
131.5	32.7417	121.568
131.6	31.9927	120.826
131.7	31.2463	120.091
131.8	30.4951	119.35
131.9	29.7483	118.612
132	28.9938	117.87
132.1	28.2549	117.134
132.2	27.5061	116.406
132.3	26.7543	115.666
132.4	26.0177	114.937
132.5	25.2689	114.196
132.6	24.5303	113.469
132.7	23.7837	112.737
132.8	23.0419	112.01
132.9	22.3006	111.276
133	21.5622	110.544
133.1	20.8264	109.821
133.2	20.0879	109.093
133.3	19.3513	108.371
133.4	18.6087	107.635
133.5	17.8717	106.914
133.6	17.1285	106.182
133.7	16.3856	105.451
133.8	15.6435	104.72
133.9	14.9108	103.997
134	14.1647	103.267
134.1	13.4302	102.541
134.2	12.6896	101.818
134.3	11.9536	101.094
134.4	11.2145	100.366
134.5	10.4716	99.6329
134.6	9.74536	98.9171
134.7	9.00579	98.1941
134.8	8.27607	97.4757
134.9	7.53607	96.7515
135	6.80618	96.0272
135.1	6.0706	95.3075
135.2	5.33601	94.5892
135.3	4.5976	93.8678
135.4	3.85717	93.138
135.5	3.12228	92.4133
135.6	2.38748	91.692
135.7	1.6483	90.9699
135.8	0.916753	90.2504
135.9	0.17677	89.5304
136	-0.553782	88.8053
136.1	-1.29517	88.0765
136.2	-2.02738	87.3605
136.3	-2.76541	86.6382
136.4	-3.49978	85.9176
136.5	-4.24176	85.1967
136.6	-4.97672	84.4759
136.7	-5.70194	83.7684
136.8	-6.43672	83.0463
136.9	-7.15901	82.335
137	-7.89437	81.6121
137.1	-8.62989	80.8997
137.2	-9.36291	80.1762
137.3	-10.1004	79.4524
137.4	-10.8401	78.7438
137.5	-11.5691	78.0207
137.6	-12.3038	77.312
137.7	-13.0322	76.5933
137.8	-13.7646	75.8746
137.9	-14.5019	75.1573
138	-15.2326	74.4477
138.1	-15.962	73.7267
138.2	-16.7055	73.0119
138.3	-17.4333	72.2963
138.4	-18.1705	71.5803
138.5	-18.9012	70.8665
138.6	-19.641	70.1471
138.7	-20.3716	69.4313
138.8	-21.0985	68.7194
138.9	-21.8306	68.0068
139	-22.5667	67.2941
139.1	-23.3055	66.5724
139.2	-24.0408	65.8508
139.3	-24.7867	65.1335
139.4	-25.5357	64.4041
139.5	-26.2731	63.6906
139.6	-26.995	62.9776
139.7	-27.7298	62.2701
139.8	-28.4609	61.5538
139.9	-29.1967	60.8453
140	-29.9285	60.1334
140.1	-30.6617	59.4224
140.2	-31.3952	58.7036
140.3	-32.1308	57.9861
140.4	-32.8745	57.262
140.5	-33.6119	56.5538
140.6	-34.3494	55.8324
140.7	-35.0792	55.1303
140.8	-35.821	54.4117
140.9	-36.5679	53.6889
141	-37.3095	52.9679
141.1	-38.0396	52.255
141.2	-38.7836	51.5332
141.3	-39.5292	50.8138
141.4	-40.271	50.0937
141.5	-41.0189	49.3753
141.6	-41.7656	48.6584
141.7	-42.4976	47.9378
141.8	-43.2405	47.217
141.9	-43.9898	46.4888
142	-44.7456	45.77
142.1	-45.4719	45.0573
142.2	-46.2154	44.3461
142.3	-46.9592	43.618
142.4	-47.6958	42.9099
142.5	-48.4389	42.1936
142.6	-49.1848	41.478
142.7	-49.9279	40.7574
142.8	-50.6796	40.0267
142.9	-51.4205	39.316
143	-52.1648	38.5983
143.1	-52.915	37.8711
143.2	-53.6703	37.1376
143.3	-54.4161	36.4211
143.4	-55.1747	35.6957
143.5	-55.9254	34.9659
143.6	-56.6769	34.2423
143.7	-57.4239	33.5193
143.8	-58.1759	32.7887
143.9	-58.9372	32.0656
144	-59.6859	31.338
144.1	-60.4316	30.6186
144.2	-61.1777	29.8951
144.3	-61.9323	29.1718
144.4	-62.6837	28.4526
144.5	-63.4357	27.7301
144.6	-64.1827	27.0033
144.7	-64.9411	26.2848
144.8	-65.6899	25.5574
144.9	-66.4432	24.8287
145	-67.1935	24.0976
145.1	-67.9462	23.381
145.2	-68.708	22.6473
145.3	-69.4589	21.9266
145.4	-70.2206	21.2025
145.5	-70.9707	20.4699
145.6	-71.7369	19.7321
145.7	-72.5019	19.0032
145.8	-73.2704	18.2652
145.9	-74.0322	17.5369
146	-74.7984	16.7941
146.1	-75.5651	16.063
146.2	-76.3232	15.3177
146.3	-77.0892	14.5914
146.4	-77.8515	13.8621
146.5	-78.6139	13.1301
146.6	-79.3897	12.3809
146.7	-80.157	11.641
146.8	-80.9294	10.9072
146.9	-81.6943	10.1674
147	-82.4698	9.42091
147.1	-83.2358	8.68884
147.2	-83.9993	7.95325
147.3	-84.7668	7.22415
147.4	-85.532	6.49107
147.5	-86.3004	5.74767
147.6	-87.0805	4.99589
147.7	-87.8555	4.25324
147.8	-88.6338	3.50153
147.9	-89.4138	2.75852
148	-90.1963	2.00929
148.1	-90.9598	1.26501
148.2	-91.7377	0.529289
148.3	-92.5114	-0.219176
148.4	-93.2876	-0.958463
148.5	-94.0612	-1.702
148.6	-94.8387	-2.44559
148.7	-95.6111	-3.19373
148.8	-96.3979	-3.94301
148.9	-97.1805	-4.69024
149	-97.967	-5.44574
149.1	-98.7418	-6.19358
149.2	-99.5235	-6.939
149.3	-100.303	-7.69011
149.4	-101.097	-8.44804
149.5	-101.875	-9.19682
149.6	-102.66	-9.9517
149.7	-103.449	-10.7035
149.8	-104.236	-11.4591
149.9	-105.023	-12.2119
150	-105.819	-12.9772
150.1	-106.613	-13.7365
150.2	-107.408	-14.4967
150.3	-108.203	-15.2577
150.4	-108.999	-16.0192
150.5	-109.796	-16.7812
150.6	-110.59	-17.5414
150.7	-111.385	-18.3025
150.8	-112.181	-19.0645
150.9	-112.977	-19.827
151	-113.774	-20.5899
151.1	-114.571	-21.3527
151.2	-115.368	-22.1166
151.3	-116.167	-22.8812
151.4	-116.966	-23.6464
151.5	-117.765	-24.412
151.6	-118.571	-25.1798
151.7	-119.378	-25.9488
151.8	-120.187	-26.719
151.9	-120.996	-27.4901
152	-121.806	-28.2619
152.1	-122.616	-29.0356
152.2	-123.427	-29.8104
152.3	-124.239	-30.586
152.4	-125.051	-31.3622
152.5	-125.864	-32.1388
152.6	-126.681	-32.9173
152.7	-127.499	-33.6972
152.8	-128.318	-34.4783
152.9	-129.139	-35.2603
153	-129.959	-36.043
153.1	-130.784	-36.8259
153.2	-131.61	-37.6101
153.3	-132.437	-38.3955
153.4	-133.265	-39.1818
153.5	-134.093	-39.9688
153.6	-134.92	-40.7535
153.7	-135.747	-41.5396
153.8	-136.576	-42.3268
153.9	-137.406	-43.115
154	-138.236	-43.9039
154.1	-139.075	-44.6998
154.2	-139.915	-45.4974
154.3	-140.757	-46.2966
154.4	-141.6	-47.097
154.5	-142.444	-47.8985
154.6	-143.288	-48.6944
154.7	-144.132	-49.4917
154.8	-144.978	-50.2903
154.9	-145.824	-51.0897
155	-146.671	-51.8899
155.1	-147.522	-52.6933
155.2	-148.375	-53.4985
155.3	-149.229	-54.3052
155.4	-150.085	-55.1132
155.5	-150.941	-55.9223
155.6	-151.806	-56.7358
155.7	-152.674	-57.5513
155.8	-153.543	-58.3689
155.9	-154.414	-59.188
156	-155.286	-60.0086
156.1	-156.157	-60.8293
156.2	-157.031	-61.6523
156.3	-157.907	-62.4772
156.4	-158.784	-63.3037
156.5	-159.663	-64.1317
156.6	-160.548	-64.9618
156.7	-161.436	-65.7942
156.8	-162.325	-66.6286
156.9	-163.216	-67.4647
157	-164.108	-68.3021
157.1	-165	-69.134
157.2	-165.894	-69.9684
157.3	-166.79	-70.8052
157.4	-167.689	-71.644
157.5	-168.589	-72.4846
157.6	-169.494	-73.331
157.7	-170.403	-74.1804
157.8	-171.314	-75.0326
157.9	-172.228	-75.8872
158	-173.144	-76.744
158.1	-174.057	-77.5946
158.2	-174.974	-78.4482
158.3	-175.894	-79.3046
158.4	-176.816	-80.1636
158.5	-177.74	-81.0247
158.6	-178.671	-81.8905
158.7	-179.606	-82.7598
158.8	179.456	-83.6324
158.9	178.515	-84.5079
159	177.572	-85.386
159.1	176.632	-86.2599
159.2	175.689	-87.1382
159.3	174.741	-88.0205
159.4	173.79	-88.9065
159.5	172.836	-89.796
159.6	171.884	-90.6796
159.7	170.928	-91.5678
159.8	169.969	-92.46
159.9	169.005	-93.3561
160	168.038	-94.2556
160.1	167.077	-95.1503
160.2	166.11	-96.0502
160.3	165.138	-96.9552
160.4	164.162	-97.8648
160.5	163.182	-98.7787
160.6	162.205	-99.6879
160.7	161.222	-100.603
160.8	160.235	-101.523
160.9	159.242	-102.449
161	158.245	-103.38
161.1	157.261	-104.3
161.2	156.271	-105.226
161.3	155.275	-106.159
161.4	154.273	-107.099
161.5	153.266	-108.043
161.6	152.275	-108.972
161.7	151.277	-109.907
161.8	150.273	-110.849
161.9	149.263	-111.798
162	148.247	-112.753
162.1	147.244	-113.697
162.2	146.234	-114.649
162.3	145.216	-115.61
162.4	144.19	-116.578
162.5	143.157	-117.554
162.6	142.156	-118.501
162.7	141.147	-119.457
162.8	140.13	-120.421
162.9	139.104	-121.394
163	138.072	-122.375
163.1	137.065	-123.332
163.2	136.05	-124.299
163.3	135.026	-125.276
163.4	133.994	-126.261
163.5	132.954	-127.254
163.6	131.948	-128.217
163.7	130.933	-129.19
163.8	129.907	-130.174
163.9	128.873	-131.168
164	127.829	-132.171
164.1	126.827	-133.137
164.2	125.814	-134.115
164.3	124.79	-135.103
164.4	123.757	-136.102
164.5	122.713	-137.112
164.6	121.713	-138.084
164.7	120.701	-139.069
164.8	119.679	-140.065
164.9	118.645	-141.073
165	117.601	-142.093
165.1	116.613	-143.058
165.2	115.614	-144.036
165.3	114.603	-145.026
165.4	113.581	-146.029
165.5	112.547	-147.044
165.6	111.568	-148.005
165.7	110.578	-148.98
165.8	109.575	-149.967
165.9	108.561	-150.967
166	107.534	-151.979
166.1	106.573	-152.93
166.2	105.599	-153.895
166.3	104.612	-154.872
166.4	103.613	-155.863
166.5	102.601	-156.867
166.6	101.651	-157.812
166.7	100.688	-158.771
166.8	99.7115	-159.744
166.9	98.7213	-160.732
167	97.7175	-161.734
167.1	96.783	-162.662
167.2	95.8347	-163.605
167.3	94.8728	-164.562
167.4	93.8971	-165.533
167.5	92.9076	-166.518
167.6	91.9988	-167.424
167.7	91.0765	-168.344
167.8	90.1405	-169.277
167.9	89.1908	-170.225
168	88.2273	-171.188
168.1	87.3333	-172.078
168.2	86.4253	-172.982
168.3	85.5032	-173.901
168.4	84.5668	-174.834
168.5	83.6161	-175.782
168.6	82.7437	-176.647
168.7	81.8573	-177.525
168.8	80.9567	-178.418
168.9	80.0418	-179.326
169	79.1124	179.752
169.1	78.2619	178.913
169.2	77.3976	178.06
169.3	76.5193	177.194
169.4	75.6267	176.312
169.5	74.7199	175.417
169.6	73.8917	174.605
169.7	73.0497	173.78
169.8	72.1937	172.941
169.9	71.3234	172.087
170	70.4387	171.219
170.1	69.674	170.481
170.2	68.8965	169.729
170.3	68.1059	168.965
170.4	67.302	168.188
170.5	66.4844	167.397
170.6	65.6524	166.595
170.7	64.8062	165.78
170.8	63.9457	164.95
170.9	63.0707	164.106
171	62.1809	163.248
171.1	61.4566	162.57
171.2	60.72	161.879
171.3	59.9709	161.177
171.4	59.2091	160.462
171.5	58.4343	159.735
171.6	57.6446	158.998
171.7	56.8414	158.248
171.8	56.0244	157.485
171.9	55.1934	156.708
172	54.3481	155.917
172.1	53.6578	155.295
172.2	52.9559	154.661
172.3	52.2421	154.016
172.4	51.5163	153.36
172.5	50.7781	152.693
172.6	50.023	152.013
172.7	49.2551	151.322
172.8	48.474	150.619
172.9	47.6794	149.902
173	46.8712	149.173
173.1	46.2149	148.611
173.2	45.5479	148.038
173.3	44.8698	147.455
173.4	44.1806	146.862
173.5	43.4799	146.259
173.6	42.7661	145.651
173.7	42.0404	145.031
173.8	41.3024	144.401
173.9	40.5519	143.759
174	39.7885	143.105
174.1	39.1638	142.603
174.2	38.5291	142.092
174.3	37.8843	141.572
174.4	37.2291	141.043
174.5	36.5633	140.504
174.6	35.8886	139.963
174.7	35.2027	139.412
174.8	34.5054	138.851
174.9	33.7965	138.279
175	33.0757	137.698
175.1	32.4827	137.259
175.2	31.8807	136.812
175.3	31.2692	136.357
175.4	30.6482	135.894
175.5	30.0174	135.423
175.6	29.3761	134.949
175.7	28.7245	134.466
175.8	28.0623	133.974
175.9	27.3894	133.473
176	26.7054	132.963
176.1	26.1342	132.575
176.2	25.5546	132.18
176.3	24.9664	131.778
176.4	24.3694	131.369
176.5	23.7634	130.953
176.6	23.1463	130.533
176.7	22.5198	130.106
176.8	21.8835	129.671
176.9	21.2373	129.227
177	20.5809	128.775
177.1	20.0382	128.451
177.2	19.4878	128.12
177.3	18.9296	127.783
177.4	18.3633	127.44
177.5	17.7887	127.091
177.6	17.2043	126.736
177.7	16.6112	126.375
177.8	16.0093	126.007
177.9	15.3982	125.631
178	14.7779	125.248
178.1	14.2616	124.977
178.2	13.7383	124.701
178.3	13.2077	124.42
178.4	12.6698	124.133
178.5	12.1242	123.84
178.6	11.5675	123.547
178.7	11.0027	123.248
178.8	10.4298	122.942
178.9	9.84855	122.63
179	9.25866	122.311
179.1	8.76605	122.097
179.2	8.26702	121.878
179.3	7.76141	121.655
179.4	7.24906	121.426
179.5	6.72979	121.193
179.6	6.20504	120.96
179.7	5.67302	120.721
179.8	5.13357	120.477
179.9	4.58647	120.227
180	4.03155	119.971
180.1	3.55802	119.804
180.2	3.07857	119.634
180.3	2.59305	119.459
180.4	2.10131	119.279
180.5	1.6032	119.095
180.6	1.0992	118.911
180.7	0.588493	118.722
180.8	0.0709087	118.528
180.9	-0.453725	118.328
181	-0.985588	118.122
181.1	-1.44322	117.997
181.2	-1.90633	117.867
181.3	-2.37506	117.734
181.4	-2.84955	117.595
181.5	-3.32992	117.453
181.6	-3.81353	117.313
181.7	-4.30333	117.169
181.8	-4.79947	117.02
181.9	-5.30211	116.865
182	-5.81142	116.705
182.1	-6.24616	116.623
182.2	-6.68583	116.538
182.3	-7.13054	116.448
182.4	-7.58041	116.354
182.5	-8.03556	116.257
182.6	-8.49154	116.159
182.7	-8.95305	116.057
182.8	-9.42022	115.95
182.9	-9.8932	115.838
183	-10.3721	115.721
183.1	-10.7893	115.671
183.2	-11.2111	115.616
183.3	-11.6378	115.558
183.4	-12.0693	115.496
183.5	-12.5059	115.429
183.6	-12.9475	115.363
183.7	-13.3944	115.292
183.8	-13.8466	115.217
183.9	-14.3044	115.136
184	-14.7679	115.05
184.1	-15.1622	115.031
184.2	-15.5609	115.008
184.3	-15.9638	114.98
184.4	-16.3713	114.949
184.5	-16.7833	114.913
184.6	-17.2004	114.872
184.7	-17.6222	114.828
184.8	-18.0491	114.778
184.9	-18.4809	114.723
185	-18.918	114.663
185.1	-19.3008	114.656
185.2	-19.6878	114.644
185.3	-20.0789	114.629
185.4	-20.4742	114.608
185.5	-20.8739	114.583
185.6	-21.2756	114.557
185.7	-21.6818	114.526
185.8	-22.0927	114.49
185.9	-22.5084	114.449
186	-22.929	114.402
186.1	-23.2952	114.404
186.2	-23.6651	114.403
186.3	-24.0388	114.396
186.4	-24.4164	114.386
186.5	-24.798	114.37
186.6	-25.1818	114.353
186.7	-25.5697	114.331
186.8	-25.9619	114.304
186.9	-26.3585	114.271
187	-26.7595	114.234
187.1	-27.1071	114.244
187.2	-27.4582	114.25
187.3	-27.8128	114.251
187.4	-28.1711	114.248
187.5	-28.5331	114.241
187.6	-28.8991	114.222
187.7	-29.269	114.199
187.8	-29.643	114.17
187.9	-30.021	114.137
188	-30.4033	114.098
188.1	-30.7388	114.105
188.2	-31.0777	114.107
188.3	-31.42	114.105
188.4	-31.7657	114.098
188.5	-32.1151	114.087
188.6	-32.4661	114.064
188.7	-32.8209	114.037
188.8	-33.1795	114.004
188.9	-33.5421	113.967
189	-33.9086	113.925
189.1	-34.2317	113.923
189.2	-34.5579	113.918
189.3	-34.8873	113.908
189.4	-35.2199	113.893
189.5	-35.5559	113.874
189.6	-35.8901	113.847
189.7	-36.2278	113.814
189.8	-36.5691	113.778
189.9	-36.9139	113.736
190	-37.2624	113.69
190.1	-37.5712	113.678
190.2	-37.8829	113.663
190.3	-38.1977	113.644
190.4	-38.5156	113.62
190.5	-38.8367	113.592
190.6	-39.1582	113.553
190.7	-39.4829	113.509
190.8	-39.8111	113.462
190.9	-40.1427	113.409
191	-40.4779	113.352
191.1	-40.7734	113.326
191.2	-41.0718	113.296
191.3	-41.3731	113.262
191.4	-41.6774	113.224
191.5	-41.9848	113.182
191.6	-42.2941	113.13
191.7	-42.6066	113.074
191.8	-42.9224	113.013
191.9	-43.2415	112.948
192	-43.5641	112.879
192.1	-43.8475	112.841
192.2	-44.1335	112.8
192.3	-44.4222	112.754
192.4	-44.7137	112.706
192.5	-45.008	112.653
192.6	-45.3024	112.593
192.7	-45.5997	112.529
192.8	-45.9	112.462
192.9	-46.2033	112.39
193	-46.5099	112.315
193.1	-46.7825	112.264
193.2	-47.0578	112.209
193.3	-47.3356	112.151
193.4	-47.6161	112.09
193.5	-47.8993	112.025
193.6	-48.184	111.948
193.7	-48.4715	111.867
193.8	-48.7619	111.783
193.9	-49.0552	111.695
194	-49.3515	111.604
194.1	-49.6108	111.543
194.2	-49.8726	111.479
194.3	-50.1368	111.412
194.4	-50.4037	111.342
194.5	-50.6732	111.269
194.6	-50.9433	111.184
194.7	-51.2161	111.096
194.8	-51.4916	111.004
194.9	-51.7701	110.909
195	-52.0514	110.811
195.1	-52.3055	110.732
195.2	-52.562	110.651
195.3	-52.8211	110.566
195.4	-53.0826	110.479
195.5	-53.3468	110.388
195.6	-53.608	110.291
195.7	-53.8719	110.191
195.8	-54.1385	110.088
195.9	-54.4078	109.982
196	-54.6801	109.872
196.1	-54.9193	109.788
196.2	-55.1607	109.701
196.3	-55.4044	109.611
196.4	-55.6503	109.519
196.5	-55.8986	109.424
196.6	-56.1461	109.322
196.7	-56.396	109.218
196.8	-56.6484	109.111
196.9	-56.9032	109.001
197	-57.1606	108.889
197.1	-57.3978	108.787
197.2	-57.6372	108.684
197.3	-57.8788	108.578
197.4	-58.1228	108.469
197.5	-58.3691	108.359
197.6	-58.6152	108.24
197.7	-58.8637	108.119
197.8	-59.1147	107.995
197.9	-59.3682	107.869
198	-59.6243	107.74
198.1	-59.8472	107.636
198.2	-60.0723	107.529
198.3	-60.2995	107.42
198.4	-60.5289	107.309
198.5	-60.7605	107.195
198.6	-60.9932	107.075
198.7	-61.2282	106.953
198.8	-61.4655	106.829
198.9	-61.7053	106.702
199	-61.9475	106.573
199.1	-62.162	106.463
199.2	-62.3784	106.352
199.3	-62.5968	106.239
199.4	-62.8173	106.124
199.5	-63.0399	106.007
199.6	-63.2605	105.881
199.7	-63.4833	105.752
199.8	-63.7082	105.622
199.9	-63.9354	105.49
200	-64.1648	105.355
200.1	-64.3734	105.237
200.2	-64.5839	105.118
200.3	-64.7964	104.996
200.4	-65.0108	104.873
200.5	-65.2273	104.748
200.6	-65.4407	104.617
200.7	-65.6562	104.485
200.8	-65.8737	104.35
200.9	-66.0934	104.214
201	-66.3153	104.075
201.1	-66.5211	103.947
201.2	-66.7289	103.818
201.3	-66.9386	103.687
201.4	-67.1504	103.553
201.5	-67.3642	103.418
201.6	-67.5777	103.276
201.7	-67.7933	103.132
201.8	-68.0111	102.986
201.9	-68.2311	102.838
202	-68.4533	102.688
202.1	-68.6396	102.569
202.2	-68.8277	102.448
202.3	-69.0175	102.326
202.4	-69.2091	102.203
202.5	-69.4024	102.078
202.6	-69.5951	101.946
202.7	-69.7896	101.813
202.8	-69.9859	101.678
202.9	-70.1842	101.542
203	-70.3843	101.404
203.1	-70.5769	101.268
203.2	-70.7713	101.13
203.3	-70.9675	100.991
203.4	-71.1655	100.85
203.5	-71.3654	100.707
203.6	-71.5669	100.557
203.7	-71.7702	100.405
203.8	-71.9755	100.251
203.9	-72.1829	100.096
204	-72.3922	99.9393
204.1	-72.5728	99.8067
204.2	-72.7551	99.6727
204.3	-72.939	99.5375
204.4	-73.1246	99.4009
204.5	-73.312	99.263
204.6	-73.4976	99.1205
204.7	-73.685	98.9767
204.8	-73.8741	98.8314
204.9	-74.0652	98.6847
205	-74.258	98.5365
205.1	-74.4343	98.3993
205.2	-74.6122	98.2609
205.3	-74.7916	98.1214
205.4	-74.9727	97.9806
205.5	-75.1554	97.8385
205.6	-75.3376	97.6903
205.7	-75.5215	97.5409
205.8	-75.7071	97.3901
205.9	-75.8945	97.238
206	-76.0837	97.0846
206.1	-76.2441	96.9567
206.2	-76.406	96.8278
206.3	-76.5694	96.6979
206.4	-76.7342	96.567
206.5	-76.9005	96.435
206.6	-77.0659	96.2976
206.7	-77.2329	96.1592
206.8	-77.4015	96.0196
206.9	-77.5715	95.879
207	-77.7432	95.7371
207.1	-77.9098	95.5946
207.2	-78.078	95.4511
207.3	-78.2477	95.3064
207.4	-78.419	95.1606
207.5	-78.5918	95.0136
207.6	-78.7644	94.8636
207.7	-78.9386	94.7125
207.8	-79.1144	94.5601
207.9	-79.2919	94.4064
208	-79.4711	94.2515
208.1	-79.6464	94.0955
208.2	-79.8233	93.9383
208.3	-80.0018	93.7799
208.4	-80.182	93.6203
208.5	-80.3639	93.4594
208.6	-80.5436	93.2966
208.7	-80.7251	93.1325
208.8	-80.9082	92.9671
208.9	-81.0932	92.8003
209	-81.2799	92.6322
209.1	-81.418	92.5074
209.2	-81.5573	92.382
209.3	-81.6977	92.2558
209.4	-81.8393	92.1288
209.5	-81.982	92.001
209.6	-82.1256	91.8695
209.7	-82.2703	91.7372
209.8	-82.4163	91.6041
209.9	-82.5635	91.4702
210	-82.712	91.3354
210.1	-82.8624	91.1926
210.2	-83.0142	91.0489
210.3	-83.1674	90.9042
210.4	-83.3219	90.7586
210.5	-83.4778	90.6119
210.6	-83.6333	90.4648
210.7	-83.7901	90.3167
210.8	-83.9485	90.1675
210.9	-84.1083	90.0172
211	-84.2696	89.8658
211.1	-84.4248	89.714
211.2	-84.5813	89.5613
211.3	-84.739	89.4077
211.4	-84.8981	89.2532
211.5	-85.0584	89.0979
211.6	-85.2173	88.9421
211.7	-85.3775	88.7853
211.8	-85.539	88.6276
211.9	-85.7019	88.4689
212	-85.8662	88.3092
212.1	-86.0013	88.1754
212.2	-86.1376	88.0408
212.3	-86.2751	87.9054
212.4	-86.4138	87.7692
212.5	-86.5537	87.6321
212.6	-86.6938	87.4898
212.7	-86.8353	87.3467
212.8	-86.9779	87.2027
212.9	-87.1219	87.0578
213	-87.2671	86.912
213.1	-87.4109	86.7662
213.2	-87.5559	86.6194
213.3	-87.702	86.4719
213.4	-87.8495	86.3234
213.5	-87.9981	86.1741
213.6	-88.1479	86.0211
213.7	-88.2988	85.8673
213.8	-88.4511	85.7125
213.9	-88.6047	85.5568
214	-88.7596	85.4001
214.1	-88.8873	85.2658
214.2	-89.0161	85.1308
214.3	-89.1458	84.9951
214.4	-89.2767	84.8587
214.5	-89.4086	84.7215
214.6	-89.5453	84.5785
214.7	-89.6832	84.4348
214.8	-89.8221	84.2902
214.9	-89.9623	84.1449
215	-90.1035	83.9987
215.1	-90.2273	83.8669
215.2	-90.3521	83.7344
215.3	-90.4779	83.6012
215.4	-90.6047	83.4673
215.5	-90.7325	83.3328
215.6	-90.8626	83.1918
215.7	-90.9936	83.0501
215.8	-91.1258	82.9077
215.9	-91.259	82.7646
216	-91.3932	82.6207
216.1	-91.5227	82.4804
216.2	-91.6533	82.3394
216.3	-91.7849	82.1977
216.4	-91.9175	82.0552
216.5	-92.0512	81.912
216.6	-92.1805	81.7695
216.7	-92.311	81.6261
216.8	-92.4425	81.482
216.9	-92.5751	81.3371
217	-92.7089	81.1914
217.1	-92.8471	81.0402
217.2	-92.9863	80.8882
217.3	-93.1267	80.7354
217.4	-93.2681	80.5817
217.5	-93.4107	80.4273
217.6	-93.5543	80.2707
217.7	-93.699	80.1132
217.8	-93.8449	79.9549
217.9	-93.992	79.7957
218	-94.1402	79.6356
218.1	-94.2521	79.5054
218.2	-94.3648	79.3746
218.3	-94.4783	79.2433
218.4	-94.5927	79.1114
218.5	-94.708	78.9788
218.6	-94.8258	78.8462
218.7	-94.9446	78.7131
218.8	-95.0643	78.5792
218.9	-95.1848	78.4448
219	-95.3063	78.3097
219.1	-95.4311	78.1664
219.2	-95.5569	78.0224
219.3	-95.6837	77.8777
219.4	-95.8114	77.7323
219.5	-95.9401	77.5862
219.6	-96.0664	77.4415
219.7	-96.1938	77.2961
219.8	-96.3221	77.1499
219.9	-96.4515	77.003
220	-96.5818	76.8552
220.1	-96.7023	76.7161
220.2	-96.8235	76.5765
220.3	-96.9456	76.4362
220.4	-97.0685	76.2954
220.5	-97.1923	76.1539
220.6	-97.3162	76.0111
220.7	-97.4411	75.8677
220.8	-97.5667	75.7237
220.9	-97.6933	75.579
221	-97.8207	75.4336
221.1	-97.9262	75.306
221.2	-98.0324	75.1778
221.3	-98.1392	75.0492
221.4	-98.2469	74.92
221.5	-98.3552	74.7902
221.6	-98.4628	74.6599
221.7	-98.5711	74.5289
221.8	-98.6802	74.3974
221.9	-98.7901	74.2654
222	-98.9007	74.1327
222.1	-99.0189	73.9935
222.2	-99.1378	73.8536
222.3	-99.2577	73.7131
222.4	-99.3783	73.5719
222.5	-99.4998	73.43
222.6	-99.6216	73.2846
222.7	-99.7442	73.1384
222.8	-99.8677	72.9916
222.9	-99.9921	72.844
223	-100.117	72.6958
223.1	-100.226	72.5632
223.2	-100.335	72.4299
223.3	-100.445	72.2961
223.4	-100.556	72.1617
223.5	-100.668	72.0267
223.6	-100.78	71.8907
223.7	-100.893	71.754
223.8	-101.007	71.6167
223.9	-101.121	71.4787
224	-101.237	71.3401
224.1	-101.341	71.2093
224.2	-101.445	71.078
224.3	-101.55	70.9461
224.4	-101.656	70.8136
224.5	-101.763	70.6806
224.6	-101.873	70.5469
224.7	-101.983	70.4126
224.8	-102.094	70.2777
224.9	-102.205	70.1422
225	-102.318	70.0061
225.1	-102.44	69.8568
225.2	-102.564	69.7069
225.3	-102.688	69.5563
225.4	-102.813	69.405
225.5	-102.939	69.2531
225.6	-103.064	69.1019
225.7	-103.19	68.9499
225.8	-103.317	68.7973
225.9	-103.445	68.644
226	-103.574	68.4899
226.1	-103.66	68.3766
226.2	-103.747	68.2629
226.3	-103.834	68.1489
226.4	-103.922	68.0346
226.5	-104.01	67.92
226.6	-104.095	67.8066
226.7	-104.181	67.693
226.8	-104.267	67.579
226.9	-104.353	67.4646
227	-104.44	67.3499
227.1	-104.559	67.2016
227.2	-104.68	67.0527
227.3	-104.801	66.9031
227.4	-104.922	66.7529
227.5	-105.045	66.602
227.6	-105.168	66.4509
227.7	-105.292	66.2991
227.8	-105.416	66.1465
227.9	-105.542	65.9933
228	-105.668	65.8394
228.1	-105.753	65.7259
228.2	-105.839	65.612
228.3	-105.925	65.4978
228.4	-106.012	65.3832
228.5	-106.099	65.2682
228.6	-106.186	65.1521
228.7	-106.273	65.0355
228.8	-106.36	64.9185
228.9	-106.448	64.8011
229	-106.537	64.6833
229.1	-106.659	64.5306
229.2	-106.782	64.3773
229.3	-106.906	64.2232
229.4	-107.03	64.0685
229.5	-107.155	63.9131
229.6	-107.281	63.7589
229.7	-107.408	63.6041
229.8	-107.535	63.4485
229.9	-107.664	63.2922
230	-107.793	63.1352
230.1	-107.879	63.0161
230.2	-107.967	62.8967
230.3	-108.055	62.7769
230.4	-108.143	62.6566
230.5	-108.231	62.536
230.6	-108.325	62.4119
230.7	-108.419	62.2873
230.8	-108.513	62.1624
230.9	-108.608	62.037
231	-108.703	61.9112
231.1	-108.793	61.7899
231.2	-108.884	61.6681
231.3	-108.975	61.5458
231.4	-109.066	61.4231
231.5	-109.158	61.3
231.6	-109.25	61.1748
231.7	-109.342	61.0491
231.8	-109.435	60.9229
231.9	-109.528	60.7963
232	-109.622	60.6692
232.1	-109.728	60.5315
232.2	-109.835	60.3934
232.3	-109.943	60.2547
232.4	-110.051	60.1156
232.5	-110.159	59.976
232.6	-110.266	59.8346
232.7	-110.374	59.6927
232.8	-110.483	59.5503
232.9	-110.592	59.4074
233	-110.702	59.264
233.1	-110.78	59.1523
233.2	-110.858	59.0402
233.3	-110.937	58.9277
233.4	-111.017	58.8149
233.5	-111.096	58.7017
233.6	-111.179	58.5864
233.7	-111.262	58.4706
233.8	-111.346	58.3545
233.9	-111.429	58.238
234	-111.514	58.1211
234.1	-111.621	57.9797
234.2	-111.728	57.8377
234.3	-111.837	57.6953
234.4	-111.945	57.5523
234.5	-112.055	57.4088
234.6	-112.163	57.2687
234.7	-112.271	57.1281
234.8	-112.38	56.987
234.9	-112.49	56.8453
235	-112.6	56.7031
235.1	-112.684	56.5838
235.2	-112.769	56.4641
235.3	-112.854	56.344
235.4	-112.939	56.2235
235.5	-113.025	56.1025
235.6	-113.111	55.9824
235.7	-113.198	55.8619
235.8	-113.285	55.741
235.9	-113.372	55.6195
236	-113.46	55.4976
236.1	-113.546	55.3768
236.2	-113.633	55.2557
236.3	-113.72	55.1341
236.4	-113.807	55.0121
236.5	-113.894	54.8897
236.6	-113.979	54.7698
236.7	-114.065	54.6494
236.8	-114.15	54.5286
236.9	-114.237	54.4075
237	-114.323	54.2858
237.1	-114.43	54.1448
237.2	-114.536	54.0033
237.3	-114.644	53.8613
237.4	-114.751	53.7189
237.5	-114.859	53.5761
237.6	-114.969	53.4313
237.7	-115.079	53.286
237.8	-115.19	53.1402
237.9	-115.301	52.994
238	-115.413	52.8472
238.1	-115.508	52.715
238.2	-115.604	52.5822
238.3	-115.7	52.4489
238.4	-115.796	52.315
238.5	-115.893	52.1807
238.6	-115.993	52.0442
238.7	-116.093	51.9073
238.8	-116.194	51.7697
238.9	-116.295	51.6317
239	-116.397	51.493
239.1	-116.427	51.4262
239.2	-116.457	51.3593
239.3	-116.488	51.2924
239.4	-116.518	51.2255
239.5	-116.548	51.1585
239.6	-116.579	51.0914
239.7	-116.61	51.0242
239.8	-116.641	50.957
239.9	-116.671	50.8897
240	-116.702	50.8225
240.1	-116.814	50.6745
240.2	-116.927	50.526
240.3	-117.04	50.3769
240.4	-117.154	50.2271
240.5	-117.268	50.0767
240.6	-117.379	49.9267
240.7	-117.491	49.7761
240.8	-117.603	49.6248
240.9	-117.716	49.4729
241	-117.829	49.3204
241.1	-117.937	49.1756
241.2	-118.045	49.0303
241.3	-118.153	48.8845
241.4	-118.262	48.7383
241.5	-118.371	48.5915
241.6	-118.48	48.4432
241.7	-118.588	48.2943
241.8	-118.698	48.145
241.9	-118.807	47.9951
242	-118.918	47.8448
242.1	-118.942	47.7831
242.2	-118.966	47.7214
242.3	-118.99	47.6598
242.4	-119.015	47.5982
242.5	-119.039	47.5366
242.6	-119.06	47.4779
242.7	-119.082	47.4192
242.8	-119.103	47.3605
242.9	-119.124	47.3018
243	-119.146	47.2431
243.1	-119.292	47.0569
243.2	-119.439	46.8701
243.3	-119.587	46.6826
243.4	-119.735	46.4946
243.5	-119.884	46.3059
243.6	-120.035	46.1164
243.7	-120.185	45.9263
243.8	-120.336	45.7356
243.9	-120.488	45.5443
244	-120.641	45.3523
244.1	-120.698	45.2539
244.2	-120.756	45.1551
244.3	-120.814	45.0562
244.4	-120.873	44.9569
244.5	-120.931	44.8574
244.6	-120.993	44.7572
244.7	-121.055	44.6566
244.8	-121.117	44.5558
244.9	-121.179	44.4547
245	-121.242	44.3534
245.1	-121.322	44.2338
245.2	-121.402	44.114
245.3	-121.482	43.9939
245.4	-121.562	43.8736
245.5	-121.643	43.7531
245.6	-121.722	43.6327
245.7	-121.801	43.512
245.8	-121.881	43.3911
245.9	-121.96	43.2699
246	-122.04	43.1484
246.1	-122.156	42.993
246.2	-122.272	42.837
246.3	-122.389	42.6805
246.4	-122.507	42.5234
246.5	-122.625	42.3657
246.6	-122.745	42.2071
246.7	-122.866	42.0478
246.8	-122.988	41.888
246.9	-123.11	41.7275
247	-123.232	41.5665
247.1	-123.291	41.4655
247.2	-123.351	41.3643
247.3	-123.41	41.2629
247.4	-123.47	41.1613
247.5	-123.53	41.0594
247.6	-123.592	40.9577
247.7	-123.654	40.8557
247.8	-123.716	40.7536
247.9	-123.778	40.6512
248	-123.841	40.5485
248.1	-123.927	40.4189
248.2	-124.015	40.2889
248.3	-124.102	40.1585
248.4	-124.19	40.0276
248.5	-124.278	39.8963
248.6	-124.368	39.7659
248.7	-124.459	39.6351
248.8	-124.55	39.5039
248.9	-124.642	39.3722
249	-124.734	39.24
249.1	-124.773	39.1553
249.2	-124.813	39.0704
249.3	-124.852	38.9854
249.4	-124.892	38.9003
249.5	-124.931	38.815
249.6	-124.977	38.731
249.7	-125.022	38.6469
249.8	-125.068	38.5626
249.9	-125.113	38.4782
250	-125.159	38.3936
